Summary
[Data Information]
Data is:,Measurement Data
Dataset Name:,RawData
Sample Name:,Grupo8_C3
Sample ID
Option
Analyst
Date/Time:,08/08/2023 04:55:35 PM
Comments
Parameter File Name:,Esfera de Integração.vspm
Report File Name
[Software Information]
Software Name:,LabSolutions UV-Vis
Version:,1.11
[Instrument Information]
Instrument Name:,UV-2600i
Instrument Type:,UV-2600 Series
Model (S/N):,UV-2600i (A12595900700)

Parameter
[Measurement]
Start:,800 nm
End:,200 nm
Data Interval:,1.0
Scan Speed:,High speed
Spectrum Type:,Absorbance
[Accessories]
Accessories:,None
[Advanced]
Slit Width:,5.0
Detector Unit:,External (2 Detector)
Light Source Switch Wavelength:,323
Detector Switch Wavelength:,830
S/R Switch:,Standard
Stair Correction:,ON
[Repeat]
Repeat Measurement:,OFF
[Post-processing]
Spectrum Transformation:,OFF
Data Processing Table:,OFF
Print:,OFF

Wavelength (nm),Absorbance
200.0,3.701
201.0,3.506
202.0,3.428
203.0,3.421
204.0,3.840
205.0,4.088
206.0,4.135
207.0,3.800
208.0,3.621
209.0,3.548
210.0,3.681
211.0,3.652
212.0,3.679
213.0,5.745
214.0,7.871
215.0,10.000
216.0,8.383
217.0,6.403
218.0,4.305
219.0,3.924
220.0,3.755
221.0,3.800
222.0,3.691
223.0,3.820
224.0,3.956
225.0,6.063
226.0,8.083
227.0,10.000
228.0,8.212
229.0,6.115
230.0,4.114
231.0,4.014
232.0,3.947
233.0,4.192
234.0,4.006
235.0,4.147
236.0,4.218
237.0,4.447
238.0,4.370
239.0,3.928
240.0,3.833
241.0,5.933
242.0,6.018
243.0,7.958
244.0,6.273
245.0,6.467
246.0,4.423
247.0,4.409
248.0,4.246
249.0,4.457
250.0,6.156
251.0,6.135
252.0,6.084
253.0,4.659
254.0,5.099
255.0,5.230
256.0,6.655
257.0,6.202
258.0,5.988
259.0,5.988
260.0,6.080
261.0,6.193
262.0,4.245
263.0,4.682
264.0,4.694
265.0,4.966
266.0,4.677
267.0,4.946
268.0,5.327
269.0,5.269
270.0,6.840
271.0,6.295
272.0,6.157
273.0,4.116
274.0,4.065
275.0,4.055
276.0,4.194
277.0,4.033
278.0,4.130
279.0,4.018
280.0,4.011
281.0,3.940
282.0,3.843
283.0,3.791
284.0,3.653
285.0,3.668
286.0,3.615
287.0,3.542
288.0,3.406
289.0,3.326
290.0,3.231
291.0,3.163
292.0,3.080
293.0,3.024
294.0,2.976
295.0,2.925
296.0,2.884
297.0,2.830
298.0,2.781
299.0,2.723
300.0,2.659
301.0,2.617
302.0,2.577
303.0,2.544
304.0,2.509
305.0,2.479
306.0,2.446
307.0,2.415
308.0,2.381
309.0,2.356
310.0,2.329
311.0,2.300
312.0,2.269
313.0,2.244
314.0,2.227
315.0,2.208
316.0,2.180
317.0,2.153
318.0,2.127
319.0,2.107
320.0,2.083
321.0,2.063
322.0,2.040
323.0,2.014
324.0,1.988
325.0,1.967
326.0,1.946
327.0,1.925
328.0,1.899
329.0,1.881
330.0,1.864
331.0,1.847
332.0,1.830
333.0,1.810
334.0,1.799
335.0,1.785
336.0,1.774
337.0,1.759
338.0,1.749
339.0,1.737
340.0,1.729
341.0,1.722
342.0,1.716
343.0,1.711
344.0,1.705
345.0,1.703
346.0,1.698
347.0,1.694
348.0,1.689
349.0,1.688
350.0,1.688
351.0,1.684
352.0,1.681
353.0,1.678
354.0,1.678
355.0,1.677
356.0,1.676
357.0,1.675
358.0,1.676
359.0,1.674
360.0,1.672
361.0,1.671
362.0,1.670
363.0,1.670
364.0,1.670
365.0,1.671
366.0,1.671
367.0,1.674
368.0,1.674
369.0,1.675
370.0,1.670
371.0,1.673
372.0,1.671
373.0,1.674
374.0,1.673
375.0,1.674
376.0,1.674
377.0,1.675
378.0,1.676
379.0,1.677
380.0,1.677
381.0,1.677
382.0,1.679
383.0,1.680
384.0,1.680
385.0,1.679
386.0,1.679
387.0,1.681
388.0,1.680
389.0,1.678
390.0,1.675
391.0,1.673
392.0,1.671
393.0,1.670
394.0,1.666
395.0,1.664
396.0,1.659
397.0,1.657
398.0,1.652
399.0,1.647
400.0,1.641
401.0,1.636
402.0,1.629
403.0,1.623
404.0,1.616
405.0,1.610
406.0,1.602
407.0,1.594
408.0,1.586
409.0,1.579
410.0,1.570
411.0,1.560
412.0,1.550
413.0,1.542
414.0,1.533
415.0,1.524
416.0,1.515
417.0,1.505
418.0,1.494
419.0,1.484
420.0,1.474
421.0,1.464
422.0,1.454
423.0,1.444
424.0,1.435
425.0,1.424
426.0,1.414
427.0,1.401
428.0,1.391
429.0,1.380
430.0,1.368
431.0,1.356
432.0,1.345
433.0,1.333
434.0,1.321
435.0,1.310
436.0,1.298
437.0,1.287
438.0,1.275
439.0,1.264
440.0,1.252
441.0,1.240
442.0,1.229
443.0,1.218
444.0,1.206
445.0,1.195
446.0,1.183
447.0,1.172
448.0,1.160
449.0,1.149
450.0,1.139
451.0,1.128
452.0,1.117
453.0,1.107
454.0,1.097
455.0,1.087
456.0,1.077
457.0,1.067
458.0,1.057
459.0,1.048
460.0,1.039
461.0,1.029
462.0,1.020
463.0,1.011
464.0,1.003
465.0,0.995
466.0,0.987
467.0,0.979
468.0,0.971
469.0,0.963
470.0,0.955
471.0,0.947
472.0,0.940
473.0,0.933
474.0,0.926
475.0,0.919
476.0,0.911
477.0,0.905
478.0,0.898
479.0,0.892
480.0,0.886
481.0,0.880
482.0,0.873
483.0,0.867
484.0,0.861
485.0,0.855
486.0,0.849
487.0,0.843
488.0,0.838
489.0,0.832
490.0,0.826
491.0,0.820
492.0,0.814
493.0,0.808
494.0,0.802
495.0,0.796
496.0,0.790
497.0,0.785
498.0,0.779
499.0,0.773
500.0,0.767
501.0,0.761
502.0,0.756
503.0,0.750
504.0,0.745
505.0,0.739
506.0,0.734
507.0,0.729
508.0,0.724
509.0,0.719
510.0,0.714
511.0,0.710
512.0,0.705
513.0,0.700
514.0,0.695
515.0,0.690
516.0,0.685
517.0,0.680
518.0,0.675
519.0,0.670
520.0,0.665
521.0,0.660
522.0,0.655
523.0,0.649
524.0,0.644
525.0,0.638
526.0,0.632
527.0,0.626
528.0,0.620
529.0,0.614
530.0,0.608
531.0,0.602
532.0,0.596
533.0,0.590
534.0,0.584
535.0,0.577
536.0,0.571
537.0,0.564
538.0,0.557
539.0,0.549
540.0,0.542
541.0,0.534
542.0,0.527
543.0,0.519
544.0,0.512
545.0,0.504
546.0,0.496
547.0,0.488
548.0,0.480
549.0,0.472
550.0,0.464
551.0,0.456
552.0,0.449
553.0,0.441
554.0,0.433
555.0,0.426
556.0,0.419
557.0,0.412
558.0,0.406
559.0,0.399
560.0,0.393
561.0,0.387
562.0,0.382
563.0,0.377
564.0,0.372
565.0,0.368
566.0,0.364
567.0,0.360
568.0,0.357
569.0,0.354
570.0,0.352
571.0,0.350
572.0,0.349
573.0,0.347
574.0,0.346
575.0,0.346
576.0,0.346
577.0,0.346
578.0,0.346
579.0,0.346
580.0,0.347
581.0,0.348
582.0,0.348
583.0,0.349
584.0,0.350
585.0,0.351
586.0,0.352
587.0,0.353
588.0,0.355
589.0,0.356
590.0,0.357
591.0,0.358
592.0,0.359
593.0,0.360
594.0,0.361
595.0,0.362
596.0,0.363
597.0,0.364
598.0,0.364
599.0,0.364
600.0,0.365
601.0,0.365
602.0,0.365
603.0,0.365
604.0,0.365
605.0,0.365
606.0,0.364
607.0,0.364
608.0,0.364
609.0,0.363
610.0,0.362
611.0,0.362
612.0,0.360
613.0,0.359
614.0,0.358
615.0,0.357
616.0,0.355
617.0,0.354
618.0,0.352
619.0,0.350
620.0,0.348
621.0,0.346
622.0,0.345
623.0,0.343
624.0,0.341
625.0,0.338
626.0,0.336
627.0,0.334
628.0,0.332
629.0,0.329
630.0,0.327
631.0,0.324
632.0,0.322
633.0,0.319
634.0,0.316
635.0,0.314
636.0,0.312
637.0,0.309
638.0,0.306
639.0,0.303
640.0,0.301
641.0,0.298
642.0,0.296
643.0,0.293
644.0,0.291
645.0,0.288
646.0,0.286
647.0,0.284
648.0,0.282
649.0,0.280
650.0,0.277
651.0,0.275
652.0,0.273
653.0,0.271
654.0,0.269
655.0,0.267
656.0,0.266
657.0,0.264
658.0,0.262
659.0,0.261
660.0,0.259
661.0,0.258
662.0,0.257
663.0,0.255
664.0,0.254
665.0,0.254
666.0,0.253
667.0,0.252
668.0,0.251
669.0,0.251
670.0,0.251
671.0,0.250
672.0,0.250
673.0,0.250
674.0,0.250
675.0,0.250
676.0,0.250
677.0,0.251
678.0,0.251
679.0,0.251
680.0,0.252
681.0,0.252
682.0,0.253
683.0,0.254
684.0,0.255
685.0,0.256
686.0,0.256
687.0,0.258
688.0,0.259
689.0,0.260
690.0,0.261
691.0,0.262
692.0,0.264
693.0,0.265
694.0,0.267
695.0,0.268
696.0,0.270
697.0,0.272
698.0,0.273
699.0,0.274
700.0,0.276
701.0,0.278
702.0,0.280
703.0,0.282
704.0,0.284
705.0,0.285
706.0,0.287
707.0,0.289
708.0,0.290
709.0,0.292
710.0,0.293
711.0,0.295
712.0,0.297
713.0,0.299
714.0,0.300
715.0,0.302
716.0,0.304
717.0,0.306
718.0,0.307
719.0,0.309
720.0,0.311
721.0,0.312
722.0,0.313
723.0,0.315
724.0,0.316
725.0,0.318
726.0,0.319
727.0,0.320
728.0,0.322
729.0,0.323
730.0,0.324
731.0,0.325
732.0,0.327
733.0,0.328
734.0,0.329
735.0,0.330
736.0,0.331
737.0,0.331
738.0,0.332
739.0,0.333
740.0,0.333
741.0,0.334
742.0,0.335
743.0,0.336
744.0,0.336
745.0,0.337
746.0,0.338
747.0,0.339
748.0,0.339
749.0,0.339
750.0,0.339
751.0,0.340
752.0,0.340
753.0,0.340
754.0,0.341
755.0,0.341
756.0,0.341
757.0,0.340
758.0,0.340
759.0,0.340
760.0,0.340
761.0,0.339
762.0,0.339
763.0,0.338
764.0,0.338
765.0,0.338
766.0,0.338
767.0,0.337
768.0,0.337
769.0,0.336
770.0,0.335
771.0,0.334
772.0,0.333
773.0,0.333
774.0,0.332
775.0,0.331
776.0,0.331
777.0,0.330
778.0,0.329
779.0,0.328
780.0,0.327
781.0,0.326
782.0,0.325
783.0,0.325
784.0,0.323
785.0,0.322
786.0,0.321
787.0,0.320
788.0,0.318
789.0,0.317
790.0,0.316
791.0,0.315
792.0,0.313
793.0,0.312
794.0,0.311
795.0,0.310
796.0,0.309
797.0,0.307
798.0,0.305
799.0,0.304
800.0,0.303
